Protoreader X
    Mode: Absorption
    Scanner: Linear scan
    User Data: Time: 20.0, Substrate concentrations: [1.0e-04 1.2e-04 1.4e-04
 1.7e-04 2.1e-04 2.5e-04
 3.0e-04 3.6e-04 4.3e-04
 5.2e-04 6.3e-04 7.5e-04
 9.0e-04 1.1e-03 1.3e-03
 1.6e-03 1.9e-03 2.3e-03
 2.7e-03 3.3e-03 3.9e-03
 4.7e-03 5.7e-03 6.8e-03
 8.2e-03 9.8e-03 1.2e-02
 1.4e-02 1.7e-02 2.0e-02
 2.5e-02 2.9e-02 3.5e-02
 4.2e-02 5.1e-02 6.1e-02
 7.4e-02 8.8e-02 1.1e-01
 1.3e-01 1.5e-01 1.8e-01
 2.2e-01 2.7e-01 3.2e-01
 3.8e-01 4.6e-01 5.5e-01
 6.7e-01 8.0e-01 9.6e-01
 1.2e+00 1.4e+00 1.7e+00
 2.0e+00 2.4e+00 2.9e+00
 3.5e+00 4.2e+00 5.0e+00]
    Scan data: [-8.78e-01, 6.76e-01,
  8.63e-01, 1.56e+00,
 -8.72e-01,-2.21e-01,
  7.53e-01, 6.46e-02,
 -1.11e+00, 4.25e-01,
  5.91e-01, 1.03e-01,
  2.38e-01,-2.37e-01,
  1.50e+00,-8.69e-01,
 -5.50e-01, 5.61e-02,
  9.33e-01,-1.43e+00,
 -1.23e+00,-1.94e+00,
  1.46e-01,-9.83e-01,
 -2.22e-01, 8.57e-01,
 -4.07e-01, 5.13e-01,
  3.92e-02, 1.08e+00,
  9.63e-01,-1.07e-01,
  5.34e-01, 1.89e+00,
  1.40e+00,-1.86e-01,
  2.11e+00, 6.54e-01,
  3.49e+00, 3.51e+00,
  3.27e+00, 3.71e+00,
  4.03e+00, 5.73e+00,
  5.63e+00, 7.36e+00,
  9.31e+00, 9.41e+00,
  1.11e+01, 1.26e+01,
  1.50e+01, 1.69e+01,
  2.24e+01, 2.68e+01,
  3.00e+01, 3.08e+01,
  3.73e+01, 4.24e+01,
  4.50e+01, 5.01e+01,
 -2.01e+00, 2.67e-01,
 -1.06e+00, 2.00e-01,
 -1.56e+00, 5.43e-01,
  1.02e+00,-7.83e-01,
 -1.14e+00,-2.16e+00,
 -2.66e-01,-5.82e-01,
 -1.55e+00, 4.53e-01,
 -4.50e-01,-1.08e+00,
 -5.55e-01, 1.07e+00,
  6.03e-01,-1.30e-01,
  6.19e-01,-1.16e+00,
  3.24e-02, 1.47e-01,
 -4.70e-01, 4.35e-01,
 -7.80e-01, 5.10e-01,
  5.52e-01,-2.92e+00,
  1.19e+00,-3.05e+00,
 -6.16e-01, 1.03e+00,
 -3.17e-01,-1.47e+00]
    