Protoreader X
    Mode: Absorption
    Scanner: Linear scan
    User Data: Time: 9.526315789473683, Substrate concentrations: [1.0e-04 1.2e-04 1.4e-04
 1.7e-04 2.1e-04 2.5e-04
 3.0e-04 3.6e-04 4.3e-04
 5.2e-04 6.3e-04 7.5e-04
 9.0e-04 1.1e-03 1.3e-03
 1.6e-03 1.9e-03 2.3e-03
 2.7e-03 3.3e-03 3.9e-03
 4.7e-03 5.7e-03 6.8e-03
 8.2e-03 9.8e-03 1.2e-02
 1.4e-02 1.7e-02 2.0e-02
 2.5e-02 2.9e-02 3.5e-02
 4.2e-02 5.1e-02 6.1e-02
 7.4e-02 8.8e-02 1.1e-01
 1.3e-01 1.5e-01 1.8e-01
 2.2e-01 2.7e-01 3.2e-01
 3.8e-01 4.6e-01 5.5e-01
 6.7e-01 8.0e-01 9.6e-01
 1.2e+00 1.4e+00 1.7e+00
 2.0e+00 2.4e+00 2.9e+00
 3.5e+00 4.2e+00 5.0e+00]
    Scan data: [-6.93e-01, 8.32e-01,
 -1.34e+00,-4.05e-01,
 -5.83e-01,-4.42e-02,
  2.82e-01,-1.00e+00,
  7.28e-01, 6.80e-02,
 -1.89e+00,-1.95e+00,
 -3.72e-03,-2.11e-01,
 -9.10e-02,-1.31e-02,
  2.43e-01, 9.69e-01,
 -1.09e+00,-1.14e+00,
 -1.06e+00, 3.34e-01,
  1.30e+00,-3.67e-01,
 -2.42e+00,-1.61e+00,
 -7.21e-01,-4.23e-01,
 -2.47e-01, 2.32e-01,
 -7.94e-02, 1.33e+00,
 -3.41e-01,-4.61e-01,
  9.60e-01,-9.59e-01,
  1.08e+00, 9.31e-01,
  8.44e-01, 2.77e+00,
  7.95e-01, 3.75e+00,
  1.79e+00, 1.13e+00,
  2.93e+00, 2.32e+00,
  3.27e+00, 5.15e+00,
  6.15e+00, 5.94e+00,
  8.66e+00, 1.01e+01,
  1.18e+01, 1.24e+01,
  1.50e+01, 1.36e+01,
  1.71e+01, 1.86e+01,
  2.18e+01, 2.32e+01,
 -1.66e-01, 1.88e+00,
 -1.70e-01, 4.14e-01,
 -2.32e-01, 7.57e-02,
  6.02e-03, 4.48e-01,
  1.17e+00, 1.65e+00,
  3.10e-01, 5.90e-01,
 -1.15e+00,-8.79e-02,
  9.40e-01, 8.66e-01,
  2.12e-01, 8.86e-01,
  4.91e-01, 1.20e+00,
  2.89e-01,-3.56e-01,
  3.36e-01,-2.93e+00,
  3.83e-01,-3.65e+00,
 -1.72e+00, 4.52e-01,
  4.78e-01,-1.16e+00,
 -7.12e-01, 1.37e+00,
 -4.84e-01, 2.24e+00,
 -1.92e-03, 4.08e-01]
    