Protoreader X
    Mode: Absorption
    Scanner: Linear scan
    User Data: Time: 13.71578947368421, Substrate concentrations: [1.0e-04 1.2e-04 1.4e-04
 1.7e-04 2.1e-04 2.5e-04
 3.0e-04 3.6e-04 4.3e-04
 5.2e-04 6.3e-04 7.5e-04
 9.0e-04 1.1e-03 1.3e-03
 1.6e-03 1.9e-03 2.3e-03
 2.7e-03 3.3e-03 3.9e-03
 4.7e-03 5.7e-03 6.8e-03
 8.2e-03 9.8e-03 1.2e-02
 1.4e-02 1.7e-02 2.0e-02
 2.5e-02 2.9e-02 3.5e-02
 4.2e-02 5.1e-02 6.1e-02
 7.4e-02 8.8e-02 1.1e-01
 1.3e-01 1.5e-01 1.8e-01
 2.2e-01 2.7e-01 3.2e-01
 3.8e-01 4.6e-01 5.5e-01
 6.7e-01 8.0e-01 9.6e-01
 1.2e+00 1.4e+00 1.7e+00
 2.0e+00 2.4e+00 2.9e+00
 3.5e+00 4.2e+00 5.0e+00]
    Scan data: [-1.70e-01,-1.56e+00,
  9.69e-01, 1.52e+00,
 -7.94e-01, 3.05e-01,
 -7.21e-01,-6.24e-01,
  7.80e-01,-3.14e-02,
  1.75e+00,-4.72e-01,
  1.01e+00, 1.12e-01,
  8.14e-01,-4.26e-01,
 -2.38e-02,-8.45e-02,
 -7.99e-01, 7.07e-01,
  7.04e-01, 6.58e-01,
  1.61e+00, 1.54e+00,
 -2.63e-01, 5.07e-01,
 -4.63e-01, 2.17e-01,
 -3.68e-01, 1.90e+00,
  6.98e-01, 1.83e-01,
  1.68e+00,-1.59e+00,
 -1.32e+00, 1.63e+00,
  1.06e+00, 1.44e+00,
  1.01e-01, 1.68e+00,
  4.04e+00, 3.26e+00,
  3.08e+00, 3.02e+00,
  3.72e+00, 2.76e+00,
  6.05e+00, 7.68e+00,
  6.48e+00, 8.79e+00,
  9.89e+00, 1.19e+01,
  1.49e+01, 1.50e+01,
  2.02e+01, 2.30e+01,
  2.48e+01, 2.56e+01,
  3.02e+01, 3.55e+01,
 -2.78e+00,-3.48e-01,
 -1.18e+00, 8.05e-01,
 -6.75e-01, 4.04e-01,
  5.65e-01, 1.84e+00,
 -2.03e-01, 3.76e-01,
 -1.49e+00, 1.19e+00,
 -7.61e-01,-5.61e-01,
 -2.22e-02,-1.56e+00,
  2.29e-01, 9.67e-01,
  2.93e-01,-1.59e+00,
 -1.24e-01, 7.42e-01,
 -1.88e+00,-1.07e+00,
  8.77e-01, 2.70e-01,
  4.12e-01, 1.86e+00,
  4.69e-01, 6.58e-01,
  2.71e+00,-2.14e-01,
 -7.98e-01, 4.28e-01,
  4.39e-01,-5.27e-01]
    