Protoreader X
    Mode: Absorption
    Scanner: Linear scan
    User Data: Time: 2.194736842105263, Substrate concentrations: [1.0e-04 1.2e-04 1.4e-04
 1.7e-04 2.1e-04 2.5e-04
 3.0e-04 3.6e-04 4.3e-04
 5.2e-04 6.3e-04 7.5e-04
 9.0e-04 1.1e-03 1.3e-03
 1.6e-03 1.9e-03 2.3e-03
 2.7e-03 3.3e-03 3.9e-03
 4.7e-03 5.7e-03 6.8e-03
 8.2e-03 9.8e-03 1.2e-02
 1.4e-02 1.7e-02 2.0e-02
 2.5e-02 2.9e-02 3.5e-02
 4.2e-02 5.1e-02 6.1e-02
 7.4e-02 8.8e-02 1.1e-01
 1.3e-01 1.5e-01 1.8e-01
 2.2e-01 2.7e-01 3.2e-01
 3.8e-01 4.6e-01 5.5e-01
 6.7e-01 8.0e-01 9.6e-01
 1.2e+00 1.4e+00 1.7e+00
 2.0e+00 2.4e+00 2.9e+00
 3.5e+00 4.2e+00 5.0e+00]
    Scan data: [-3.83e-01, 1.46e+00,
 -1.11e+00,-8.94e-01,
  6.44e-01,-3.94e-01,
 -4.46e-03,-1.63e-01,
  3.39e-01, 1.41e+00,
  9.20e-02, 6.46e-01,
 -2.05e+00,-4.63e-02,
 -8.40e-01,-1.22e+00,
 -8.74e-01,-3.29e-01,
  9.22e-01,-1.32e+00,
  3.92e-02,-4.74e-01,
 -3.15e-01, 1.02e+00,
  5.56e-01, 1.36e+00,
 -1.29e-01,-6.65e-01,
 -1.87e-01, 2.87e-01,
  2.30e-01,-1.02e+00,
  1.68e-01, 3.21e-01,
  2.63e+00, 2.01e+00,
 -6.94e-01,-9.66e-02,
 -1.24e+00,-3.17e-01,
  6.42e-01, 1.60e+00,
 -2.64e-01,-1.00e-01,
 -1.49e+00, 6.19e-01,
 -1.36e-01, 5.65e-01,
  4.11e-01, 1.42e+00,
  9.53e-03, 5.89e-01,
  4.51e+00, 1.45e+00,
  2.04e+00, 5.40e+00,
  6.92e+00, 3.32e+00,
  4.62e+00, 5.83e+00,
  1.73e+00,-9.87e-01,
 -2.45e-01, 7.77e-01,
  4.35e-01,-3.76e-01,
 -1.34e-01,-1.37e+00,
 -2.38e-01,-2.66e-01,
  2.32e-01,-5.55e-01,
  4.72e-01, 1.01e+00,
  1.55e-01, 3.52e-01,
  5.32e-02, 8.44e-05,
 -7.22e-01, 3.16e-01,
 -9.73e-02, 2.09e+00,
  1.57e+00, 3.86e-01,
 -7.63e-01,-1.11e+00,
  1.19e+00, 2.63e-01,
  4.80e-01,-1.74e+00,
  9.27e-01, 4.54e-01,
 -1.11e+00,-4.72e-01,
  2.64e-01, 5.25e-02]
    