Protoreader X
    Mode: Absorption
    Scanner: Linear scan
    User Data: Time: 17.905263157894737, Substrate concentrations: [1.0e-04 1.2e-04 1.4e-04
 1.7e-04 2.1e-04 2.5e-04
 3.0e-04 3.6e-04 4.3e-04
 5.2e-04 6.3e-04 7.5e-04
 9.0e-04 1.1e-03 1.3e-03
 1.6e-03 1.9e-03 2.3e-03
 2.7e-03 3.3e-03 3.9e-03
 4.7e-03 5.7e-03 6.8e-03
 8.2e-03 9.8e-03 1.2e-02
 1.4e-02 1.7e-02 2.0e-02
 2.5e-02 2.9e-02 3.5e-02
 4.2e-02 5.1e-02 6.1e-02
 7.4e-02 8.8e-02 1.1e-01
 1.3e-01 1.5e-01 1.8e-01
 2.2e-01 2.7e-01 3.2e-01
 3.8e-01 4.6e-01 5.5e-01
 6.7e-01 8.0e-01 9.6e-01
 1.2e+00 1.4e+00 1.7e+00
 2.0e+00 2.4e+00 2.9e+00
 3.5e+00 4.2e+00 5.0e+00]
    Scan data: [ 1.48e-01,-1.49e-02,
  2.86e-01, 1.09e+00,
 -1.76e+00, 9.78e-01,
  1.37e-02,-1.97e-01,
 -1.46e+00, 5.12e-01,
 -2.40e+00, 6.62e-01,
 -1.48e+00, 7.29e-02,
 -9.58e-02, 1.20e+00,
 -1.45e-01,-6.54e-01,
 -4.58e-01, 1.33e+00,
  6.06e-01,-3.01e-01,
 -1.35e-01,-1.45e+00,
  5.34e-01,-1.58e+00,
  9.62e-01, 3.81e-01,
  2.69e+00,-7.36e-01,
  3.34e-01, 2.32e+00,
  1.82e+00, 5.81e-02,
  1.13e+00, 1.09e+00,
  1.58e+00, 8.58e-01,
  1.77e+00, 6.31e-01,
  2.80e+00, 3.63e+00,
  3.57e+00, 2.91e+00,
  6.36e+00, 6.74e+00,
  6.83e+00, 8.64e+00,
  9.01e+00, 1.13e+01,
  1.39e+01, 1.80e+01,
  1.88e+01, 2.30e+01,
  2.50e+01, 2.93e+01,
  3.26e+01, 3.75e+01,
  4.01e+01, 4.32e+01,
 -1.38e+00,-5.32e-01,
 -1.25e+00, 4.10e-01,
 -4.66e-01, 2.37e+00,
 -1.74e+00, 2.04e-01,
 -1.13e+00,-4.93e-01,
  1.41e-01,-2.33e+00,
  2.37e-01, 1.90e+00,
 -4.53e-01, 2.60e-01,
  1.02e+00,-1.64e-01,
 -5.81e-01,-2.28e+00,
  6.41e-01,-1.13e-01,
 -1.01e+00, 1.27e-01,
 -5.84e-01,-5.28e-01,
  6.06e-01,-1.34e+00,
  1.05e+00,-1.40e+00,
 -6.63e-01, 1.92e+00,
  1.13e+00, 9.76e-02,
 -9.41e-01,-5.29e-01]
    