Protoreader X
    Mode: Absorption
    Scanner: Linear scan
    User Data: Time: 4.289473684210526, Substrate concentrations: [1.0e-04 1.2e-04 1.4e-04
 1.7e-04 2.1e-04 2.5e-04
 3.0e-04 3.6e-04 4.3e-04
 5.2e-04 6.3e-04 7.5e-04
 9.0e-04 1.1e-03 1.3e-03
 1.6e-03 1.9e-03 2.3e-03
 2.7e-03 3.3e-03 3.9e-03
 4.7e-03 5.7e-03 6.8e-03
 8.2e-03 9.8e-03 1.2e-02
 1.4e-02 1.7e-02 2.0e-02
 2.5e-02 2.9e-02 3.5e-02
 4.2e-02 5.1e-02 6.1e-02
 7.4e-02 8.8e-02 1.1e-01
 1.3e-01 1.5e-01 1.8e-01
 2.2e-01 2.7e-01 3.2e-01
 3.8e-01 4.6e-01 5.5e-01
 6.7e-01 8.0e-01 9.6e-01
 1.2e+00 1.4e+00 1.7e+00
 2.0e+00 2.4e+00 2.9e+00
 3.5e+00 4.2e+00 5.0e+00]
    Scan data: [-1.60e+00,-7.94e-01,
  4.40e-01, 5.25e-01,
  2.77e-01,-1.41e+00,
 -2.31e+00, 5.59e-02,
 -4.70e-01, 4.62e-01,
  7.05e-01, 1.41e-01,
  7.64e-01, 2.34e-01,
  5.36e-01,-6.98e-01,
 -1.72e-01, 2.06e-01,
  8.32e-01,-3.80e-01,
  5.38e-01,-2.46e-01,
 -9.33e-02, 8.59e-01,
 -1.96e+00,-1.25e+00,
 -1.43e+00,-2.27e+00,
 -6.06e-01, 8.37e-01,
 -1.80e-01, 3.23e-01,
  1.24e+00, 1.51e+00,
  1.48e-01, 1.61e+00,
  4.03e-01,-4.64e-01,
 -1.48e-01,-9.47e-01,
 -2.50e-01, 4.04e-01,
  1.71e+00, 2.80e+00,
 -9.44e-02, 1.92e+00,
  7.70e-01, 2.61e+00,
  2.39e+00, 1.12e+00,
  4.38e+00, 3.41e+00,
  4.12e+00, 4.29e+00,
  5.47e+00, 7.39e+00,
  7.66e+00, 9.11e+00,
  1.01e+01, 1.20e+01,
 -3.43e-01,-1.48e+00,
  1.07e+00,-3.31e-01,
  1.11e+00, 3.83e-01,
 -1.31e-01, 3.49e-01,
  1.95e+00, 2.08e+00,
  6.94e-02, 1.60e-01,
  1.08e+00,-8.46e-01,
  3.33e-01,-2.59e-02,
  3.14e-01,-8.33e-01,
 -1.59e+00,-2.07e+00,
 -1.12e+00,-4.59e-01,
 -2.93e-01, 1.94e+00,
  1.11e+00,-9.62e-01,
  3.48e-01,-4.07e-01,
 -2.84e-01, 1.85e-01,
  6.19e-01,-3.39e-01,
  1.06e+00,-1.14e+00,
  6.34e-03, 2.60e+00]
    