Protoreader X
    Mode: Absorption
    Scanner: Linear scan
    User Data: Time: 14.76315789473684, Substrate concentrations: [1.0e-04 1.2e-04 1.4e-04
 1.7e-04 2.1e-04 2.5e-04
 3.0e-04 3.6e-04 4.3e-04
 5.2e-04 6.3e-04 7.5e-04
 9.0e-04 1.1e-03 1.3e-03
 1.6e-03 1.9e-03 2.3e-03
 2.7e-03 3.3e-03 3.9e-03
 4.7e-03 5.7e-03 6.8e-03
 8.2e-03 9.8e-03 1.2e-02
 1.4e-02 1.7e-02 2.0e-02
 2.5e-02 2.9e-02 3.5e-02
 4.2e-02 5.1e-02 6.1e-02
 7.4e-02 8.8e-02 1.1e-01
 1.3e-01 1.5e-01 1.8e-01
 2.2e-01 2.7e-01 3.2e-01
 3.8e-01 4.6e-01 5.5e-01
 6.7e-01 8.0e-01 9.6e-01
 1.2e+00 1.4e+00 1.7e+00
 2.0e+00 2.4e+00 2.9e+00
 3.5e+00 4.2e+00 5.0e+00]
    Scan data: [-1.03e+00, 2.31e+00,
  3.29e-01,-7.30e-01,
  9.19e-01,-1.05e-01,
 -2.48e-01, 5.68e-01,
 -1.29e+00, 3.60e-01,
  1.92e+00, 4.77e-01,
 -3.63e-01,-4.91e-01,
 -3.91e-01,-2.31e-01,
 -3.50e-01, 9.50e-01,
 -1.69e+00, 9.10e-01,
 -3.22e-01, 4.46e-01,
 -1.04e+00, 1.43e+00,
  1.37e+00, 1.10e+00,
 -1.34e+00, 1.04e+00,
  6.55e-01,-1.31e+00,
  3.36e-01, 7.97e-01,
  1.07e+00, 7.99e-01,
  1.04e+00, 2.37e+00,
  2.30e+00,-1.58e+00,
  1.22e+00, 1.67e+00,
  4.45e-01, 2.72e+00,
  4.38e+00, 2.64e+00,
  4.77e+00, 4.34e+00,
  5.56e+00, 8.84e+00,
  8.12e+00, 1.06e+01,
  1.00e+01, 1.57e+01,
  1.66e+01, 1.82e+01,
  2.17e+01, 2.25e+01,
  2.82e+01, 2.99e+01,
  3.33e+01, 3.64e+01,
 -5.81e-01, 6.95e-01,
  2.56e-01, 6.52e-01,
 -8.79e-03, 5.13e-01,
 -4.19e-01, 2.23e+00,
 -1.57e+00, 1.26e+00,
  1.37e+00,-8.52e-01,
  2.23e+00, 9.95e-01,
  9.71e-01, 2.80e-02,
 -2.17e-01,-2.09e-01,
  3.91e-01, 1.40e+00,
  1.81e-01,-9.11e-01,
  8.24e-01, 9.21e-01,
  6.55e-01, 7.45e-01,
 -2.71e-01,-9.29e-01,
 -8.68e-01,-1.64e+00,
  2.37e-01,-8.34e-02,
 -4.40e-01,-2.96e+00,
 -1.25e+00, 1.12e+00]
    